*Lake Giles absorption data, from 1994 and 2015,
* from Craig Williamson, priv. comm. Sept. 2015.
Naperian basis, m-1
nm       1994       2015
  200.0  9.548E+00  2.721E+01
  201.0  8.890E+00  2.648E+01
  202.0  8.312E+00  2.514E+01
  203.0  7.833E+00  2.405E+01
  204.0  7.414E+00  2.308E+01
  205.0  6.988E+00  2.216E+01
  206.0  6.649E+00  2.134E+01
  207.0  6.343E+00  2.060E+01
  208.0  6.085E+00  1.987E+01
  209.0  5.832E+00  1.919E+01
  210.0  5.604E+00  1.857E+01
  211.0  5.337E+00  1.799E+01
  212.0  5.190E+00  1.744E+01
  213.0  4.994E+00  1.692E+01
  214.0  4.826E+00  1.642E+01
  215.0  4.701E+00  1.595E+01
  216.0  4.559E+00  1.551E+01
  217.0  4.430E+00  1.511E+01
  218.0  4.305E+00  1.471E+01
  219.0  4.186E+00  1.433E+01
  220.0  4.087E+00  1.397E+01
  221.0  4.006E+00  1.364E+01
  222.0  3.882E+00  1.332E+01
  223.0  3.829E+00  1.303E+01
  224.0  3.739E+00  1.274E+01
  225.0  3.668E+00  1.247E+01
  226.0  3.594E+00  1.220E+01
  227.0  3.495E+00  1.196E+01
  228.0  3.458E+00  1.173E+01
  229.0  3.394E+00  1.149E+01
  230.0  3.304E+00  1.126E+01
  231.0  3.255E+00  1.104E+01
  232.0  3.179E+00  1.083E+01
  233.0  3.083E+00  1.062E+01
  234.0  3.027E+00  1.041E+01
  235.0  2.995E+00  1.023E+01
  236.0  2.915E+00  1.005E+01
  237.0  2.880E+00  9.880E+00
  238.0  2.811E+00  9.717E+00
  239.0  2.770E+00  9.563E+00
  240.0  2.724E+00  9.420E+00
  241.0  2.675E+00  9.285E+00
  242.0  2.620E+00  9.160E+00
  243.0  2.606E+00  9.042E+00
  244.0  2.549E+00  8.936E+00
  245.0  2.535E+00  8.835E+00
  246.0  2.482E+00  8.743E+00
  247.0  2.468E+00  8.659E+00
  248.0  2.413E+00  8.577E+00
  249.0  2.387E+00  8.502E+00
  250.0  2.394E+00  8.429E+00
  251.0  2.371E+00  8.357E+00
  252.0  2.355E+00  8.287E+00
  253.0  2.332E+00  8.221E+00
  254.0  2.307E+00  8.159E+00
  255.0  2.268E+00  8.095E+00
  256.0  2.251E+00  8.029E+00
  257.0  2.263E+00  7.960E+00
  258.0  2.222E+00  7.891E+00
  259.0  2.219E+00  7.818E+00
  260.0  2.180E+00  7.744E+00
  261.0  2.192E+00  7.671E+00
  262.0  2.173E+00  7.589E+00
  263.0  2.132E+00  7.511E+00
  264.0  2.111E+00  7.427E+00
  265.0  2.086E+00  7.340E+00
  266.0  2.079E+00  7.249E+00
  267.0  2.042E+00  7.156E+00
  268.0  2.024E+00  7.057E+00
  269.0  2.012E+00  6.953E+00
  270.0  1.984E+00  6.848E+00
  271.0  1.957E+00  6.743E+00
  272.0  1.899E+00  6.635E+00
  273.0  1.897E+00  6.526E+00
  274.0  1.867E+00  6.409E+00
  275.0  1.828E+00  6.296E+00
  276.0  1.796E+00  6.191E+00
  277.0  1.777E+00  6.071E+00
  278.0  1.752E+00  5.950E+00
  279.0  1.697E+00  5.826E+00
  280.0  1.683E+00  5.699E+00
  281.0  1.630E+00  5.570E+00
  282.0  1.607E+00  5.447E+00
  283.0  1.581E+00  5.321E+00
  284.0  1.572E+00  5.200E+00
  285.0  1.549E+00  5.085E+00
  286.0  1.505E+00  4.970E+00
  287.0  1.496E+00  4.850E+00
  288.0  1.443E+00  4.734E+00
  289.0  1.418E+00  4.620E+00
  290.0  1.379E+00  4.514E+00
  291.0  1.351E+00  4.403E+00
  292.0  1.333E+00  4.292E+00
  293.0  1.335E+00  4.188E+00
  294.0  1.298E+00  4.089E+00
  295.0  1.268E+00  3.995E+00
  296.0  1.245E+00  3.899E+00
  297.0  1.229E+00  3.809E+00
  298.0  1.185E+00  3.724E+00
  299.0  1.149E+00  3.640E+00
  300.0  1.121E+00  3.560E+00
  301.0  1.098E+00  3.478E+00
  302.0  1.107E+00  3.402E+00
  303.0  1.056E+00  3.330E+00
  304.0  1.050E+00  3.255E+00
  305.0  1.029E+00  3.183E+00
  306.0  9.966E-01  3.113E+00
  307.0  9.390E-01  3.046E+00
  308.0  9.666E-01  2.989E+00
  309.0  9.390E-01  2.928E+00
  310.0  9.137E-01  2.874E+00
  311.0  9.045E-01  2.818E+00
  312.0  8.676E-01  2.762E+00
  313.0  8.814E-01  2.708E+00
  314.0  8.561E-01  2.658E+00
  315.0  8.377E-01  2.607E+00
  316.0  8.009E-01  2.558E+00
  317.0  7.986E-01  2.513E+00
  318.0  7.916E-01  2.470E+00
  319.0  7.479E-01  2.427E+00
  320.0  7.617E-01  2.380E+00
  321.0  7.594E-01  2.336E+00
  322.0  7.410E-01  2.292E+00
  323.0  7.134E-01  2.251E+00
  324.0  6.880E-01  2.212E+00
  325.0  6.834E-01  2.175E+00
  326.0  6.650E-01  2.133E+00
  327.0  6.397E-01  2.095E+00
  328.0  6.374E-01  2.060E+00
  329.0  6.328E-01  2.023E+00
  330.0  6.120E-01  1.985E+00
  331.0  5.867E-01  1.949E+00
  332.0  5.890E-01  1.915E+00
  333.0  5.890E-01  1.886E+00
  334.0  5.706E-01  1.852E+00
  335.0  5.614E-01  1.817E+00
  336.0  5.614E-01  1.785E+00
  337.0  5.614E-01  1.753E+00
  338.0  5.222E-01  1.722E+00
  339.0  5.107E-01  1.694E+00
  340.0  5.107E-01  1.666E+00
  341.0  4.808E-01  1.634E+00
  342.0  4.693E-01  1.603E+00
  343.0  4.693E-01  1.574E+00
  344.0  4.509E-01  1.542E+00
  345.0  4.440E-01  1.516E+00
  346.0  3.864E-01  1.492E+00
  347.0  4.048E-01  1.466E+00
  348.0  4.117E-01  1.438E+00
  349.0  3.588E-01  1.413E+00
  350.0  3.910E-01  1.387E+00
  351.0  3.772E-01  1.363E+00
  352.0  3.334E-01  1.340E+00
  353.0  3.542E-01  1.315E+00
  354.0  3.495E-01  1.291E+00
  355.0  3.104E-01  1.270E+00
  356.0  2.920E-01  1.247E+00
  357.0  2.966E-01  1.225E+00
  358.0  2.713E-01  1.207E+00
  359.0  2.759E-01  1.185E+00
  360.0  2.782E-01  1.164E+00
  361.0  2.436E-01  1.143E+00
  362.0  2.183E-01  1.124E+00
  363.0  2.390E-01  1.104E+00
  364.0  2.390E-01  1.083E+00
  365.0  2.068E-01  1.066E+00
  366.0  2.114E-01  1.047E+00
  367.0  1.999E-01  1.026E+00
  368.0  1.792E-01  1.009E+00
  369.0  1.561E-01  9.925E-01
  370.0  1.584E-01  9.763E-01
  371.0  1.630E-01  9.591E-01
  372.0  1.285E-01  9.430E-01
  373.0  1.607E-01  9.245E-01
  374.0  1.423E-01  9.084E-01
  375.0  1.423E-01  8.923E-01
  376.0  1.262E-01  8.773E-01
  377.0  1.262E-01  8.601E-01
  378.0  1.055E-01  8.474E-01
  379.0  1.032E-01  8.336E-01
  380.0  1.032E-01  8.163E-01
  381.0  1.170E-01  8.048E-01
  382.0  1.101E-01  7.898E-01
  383.0  8.015E-02  7.737E-01
  384.0  8.475E-02  7.610E-01
  385.0  1.170E-01  7.495E-01
  386.0  8.015E-02  7.369E-01
  387.0  8.015E-02  7.242E-01
  388.0  8.706E-02  7.092E-01
  389.0  8.706E-02  6.966E-01
  390.0  8.475E-02  6.851E-01
  391.0  8.706E-02  6.735E-01
  392.0  6.633E-02  6.609E-01
  393.0  7.554E-02  6.494E-01
  394.0  5.942E-02  6.379E-01
  395.0  9.627E-02  6.275E-01
  396.0  1.009E-01  6.148E-01
  397.0  4.100E-02  6.045E-01
  398.0  7.094E-02  5.953E-01
  399.0  7.784E-02  5.849E-01
  400.0  9.166E-02  5.745E-01
  401.0  3.410E-02  5.642E-01
  402.0  3.640E-02  5.573E-01
  403.0  5.252E-02  5.481E-01
  404.0  3.640E-02  5.423E-01
  405.0  5.252E-02  5.331E-01
  406.0  5.252E-02  5.227E-01
  407.0  5.252E-02  5.147E-01
  408.0  4.100E-02  5.055E-01
  409.0  5.252E-02  4.974E-01
  410.0  5.021E-02  4.893E-01
  411.0  4.791E-02  4.824E-01
  412.0  1.798E-02  4.744E-01
  413.0  1.337E-02  4.652E-01
  414.0  5.252E-02  4.583E-01
  415.0  1.568E-02  4.525E-01
  416.0  2.719E-02  4.467E-01
  417.0  1.107E-02  4.433E-01
  418.0  1.798E-02  4.341E-01
  419.0  4.791E-02  4.260E-01
  420.0  4.561E-02  4.180E-01
  421.0  4.561E-02  4.122E-01
  422.0  1.107E-02  4.064E-01
  423.0  2.719E-02  4.030E-01
  424.0 -2.745E-03  3.938E-01
  425.0  5.252E-02  3.880E-01
  426.0 -9.653E-03  3.823E-01
  427.0 -2.745E-03  3.800E-01
  428.0  2.719E-02  3.708E-01
  429.0  2.719E-02  3.685E-01
  430.0  2.719E-02  3.650E-01
  431.0  5.021E-02  3.581E-01
  432.0 -9.653E-03  3.523E-01
  433.0 -9.653E-03  3.489E-01
  434.0 -4.428E-04  3.431E-01
  435.0 -4.428E-04  3.385E-01
  436.0  6.465E-03  3.351E-01
  437.0 -4.428E-04  3.293E-01
  438.0 -4.428E-04  3.236E-01
  439.0  6.465E-03  3.213E-01
  440.0 -1.196E-02  3.178E-01
  441.0 -9.653E-03  3.132E-01
  442.0  1.860E-03  3.086E-01
  443.0 -4.428E-04  3.040E-01
  444.0 -4.428E-04  3.005E-01
  445.0 -1.196E-02  2.936E-01
  446.0  8.768E-03  2.902E-01
  447.0 -2.745E-03  2.890E-01
  448.0  8.768E-03  2.844E-01
  449.0 -2.577E-02  2.798E-01
  450.0 -2.577E-02  2.787E-01
  451.0  6.465E-03  2.752E-01
  452.0  2.719E-02  2.694E-01
  453.0 -1.196E-02  2.660E-01
  454.0 -1.196E-02  2.625E-01
  455.0  8.768E-03  2.602E-01
  456.0  8.768E-03  2.556E-01
  457.0  2.489E-02  2.510E-01
  458.0 -1.196E-02  2.476E-01
  459.0 -4.428E-04  2.430E-01
  460.0 -4.428E-04  2.384E-01
  461.0 -4.428E-04  2.384E-01
  462.0 -2.577E-02  2.349E-01
  463.0 -2.577E-02  2.303E-01
  464.0 -3.268E-02  2.280E-01
  465.0  1.860E-03  2.245E-01
  466.0  1.860E-03  2.211E-01
  467.0 -1.196E-02  2.176E-01
  468.0 -4.428E-04  2.165E-01
  469.0 -4.428E-04  2.142E-01
  470.0 -4.428E-04  2.119E-01
  471.0 -3.268E-02  2.073E-01
  472.0  6.465E-03  2.027E-01
  473.0 -3.268E-02  2.015E-01
  474.0 -2.577E-02  1.992E-01
  475.0 -4.428E-04  1.981E-01
  476.0  1.860E-03  1.969E-01
  477.0  2.489E-02  1.946E-01
  478.0 -4.428E-04  1.923E-01
  479.0 -4.428E-04  1.877E-01
  480.0 -2.577E-02  1.854E-01
  481.0  3.179E-02  1.843E-01
  482.0  2.719E-02  1.808E-01
  483.0 -4.428E-04  1.796E-01
  484.0 -4.428E-04  1.796E-01
  485.0 -4.428E-04  1.773E-01
  486.0  6.465E-03  1.739E-01
  487.0 -1.196E-02  1.727E-01
  488.0 -9.653E-03  1.727E-01
  489.0 -2.745E-03  1.716E-01
  490.0 -2.745E-03  1.681E-01
  491.0 -7.351E-03  1.647E-01
  492.0 -9.653E-03  1.647E-01
  493.0 -1.196E-02  1.624E-01
  494.0  8.768E-03  1.624E-01
  495.0 -2.577E-02  1.612E-01
  496.0 -2.577E-02  1.589E-01
  497.0  6.465E-03  1.566E-01
  498.0 -4.428E-04  1.555E-01
  499.0 -4.428E-04  1.543E-01
  500.0 -2.577E-02  1.532E-01
  501.0 -2.577E-02  1.520E-01
  502.0 -4.428E-04  1.486E-01
  503.0  6.465E-03  1.474E-01
  504.0 -1.196E-02  1.440E-01
  505.0  8.768E-03  1.440E-01
  506.0 -1.196E-02  1.440E-01
  507.0 -4.428E-04  1.405E-01
  508.0 -4.428E-04  1.405E-01
  509.0 -4.428E-04  1.394E-01
  510.0 -2.577E-02  1.382E-01
  511.0  1.860E-03  1.382E-01
  512.0 -2.577E-02  1.359E-01
  513.0  6.465E-03  1.347E-01
  514.0 -2.807E-02  1.324E-01
  515.0 -4.428E-04  1.324E-01
  516.0 -2.807E-02  1.324E-01
  517.0 -2.807E-02  1.313E-01
  518.0 -2.577E-02  1.301E-01
  519.0 -2.807E-02  1.290E-01
  520.0 -3.268E-02  1.278E-01
  521.0 -2.577E-02  1.267E-01
  522.0 -2.577E-02  1.267E-01
  523.0 -2.577E-02  1.255E-01
  524.0 -2.577E-02  1.232E-01
  525.0 -1.196E-02  1.232E-01
  526.0 -3.268E-02  1.198E-01
  527.0 -3.268E-02  1.186E-01
  528.0 -3.268E-02  1.163E-01
  529.0 -1.886E-02  1.152E-01
  530.0 -1.426E-02  1.129E-01
  531.0 -2.807E-02  1.106E-01
  532.0 -2.577E-02  1.094E-01
  533.0 -1.656E-02  1.094E-01
  534.0 -2.807E-02  1.071E-01
  535.0 -3.268E-02  1.071E-01
  536.0 -3.498E-02  1.060E-01
  537.0 -3.498E-02  1.025E-01
  538.0 -2.807E-02  9.790E-02
  539.0 -2.807E-02  9.906E-02
  540.0 -2.577E-02  9.906E-02
  541.0 -4.428E-04  9.675E-02
  542.0  6.465E-03  9.675E-02
  543.0 -2.577E-02  9.790E-02
  544.0 -2.577E-02  9.330E-02
  545.0  1.860E-03  9.560E-02
  546.0 -2.577E-02  9.560E-02
  547.0 -2.577E-02  9.330E-02
  548.0 -2.807E-02  9.215E-02
  549.0 -2.577E-02  9.215E-02
  550.0 -2.577E-02  9.215E-02
  551.0 -4.428E-04  8.869E-02
  552.0 -2.577E-02  8.639E-02
  553.0 -2.577E-02  8.639E-02
  554.0 -2.577E-02  8.524E-02
  555.0 -2.577E-02  8.294E-02
  556.0 -2.577E-02  8.294E-02
  557.0 -2.577E-02  8.294E-02
  558.0 -2.577E-02  8.063E-02
  559.0 -4.428E-04  8.063E-02
  560.0 -2.807E-02  7.948E-02
  561.0 -4.428E-04  7.948E-02
  562.0 -2.577E-02  7.948E-02
  563.0 -4.428E-04  7.718E-02
  564.0 -2.577E-02  7.718E-02
  565.0 -4.428E-04  7.718E-02
  566.0 -2.577E-02  7.718E-02
  567.0 -4.428E-04  7.488E-02
  568.0 -2.807E-02  7.488E-02
  569.0 -2.577E-02  7.488E-02
  570.0 -3.268E-02  7.142E-02
  571.0 -2.577E-02  6.912E-02
  572.0 -3.498E-02  7.142E-02
  573.0 -3.268E-02  7.027E-02
  574.0 -4.428E-04  6.912E-02
  575.0 -2.577E-02  6.797E-02
  576.0 -3.268E-02  6.912E-02
  577.0 -2.577E-02  6.797E-02
  578.0 -2.577E-02  6.567E-02
  579.0 -2.577E-02  6.452E-02
  580.0 -2.577E-02  6.567E-02
  581.0 -2.577E-02  6.567E-02
  582.0 -2.577E-02  6.337E-02
  583.0 -2.577E-02  6.337E-02
  584.0 -2.807E-02  6.337E-02
  585.0 -2.807E-02  6.452E-02
  586.0 -2.577E-02  6.452E-02
  587.0 -2.807E-02  6.452E-02
  588.0 -1.426E-02  6.221E-02
  589.0 -3.268E-02  6.337E-02
  590.0  1.860E-03  6.106E-02
  591.0 -2.577E-02  5.876E-02
  592.0 -3.268E-02  6.221E-02
  593.0 -3.268E-02  5.876E-02
  594.0 -3.268E-02  5.991E-02
  595.0 -3.268E-02  6.106E-02
  596.0 -3.498E-02  5.761E-02
  597.0 -4.428E-04  5.991E-02
  598.0 -2.577E-02  5.991E-02
  599.0 -2.577E-02  5.646E-02
  600.0 -2.577E-02  5.415E-02
  601.0 -2.577E-02  5.646E-02
  602.0 -2.577E-02  5.531E-02
  603.0 -2.577E-02  5.531E-02
  604.0 -4.428E-04  5.415E-02
  605.0  6.465E-03  5.300E-02
  606.0 -4.428E-04  5.185E-02
  607.0  1.860E-03  5.300E-02
  608.0 -4.428E-04  5.185E-02
  609.0  6.465E-03  5.185E-02
  610.0  1.860E-03  5.185E-02
  611.0 -4.428E-04  5.070E-02
  612.0 -4.428E-04  5.185E-02
  613.0 -4.428E-04  5.070E-02
  614.0 -2.577E-02  5.070E-02
  615.0 -2.577E-02  4.955E-02
  616.0 -2.577E-02  4.955E-02
  617.0 -2.577E-02  4.840E-02
  618.0 -2.577E-02  4.840E-02
  619.0 -2.577E-02  4.955E-02
  620.0 -4.428E-04  4.840E-02
  621.0 -2.807E-02  4.494E-02
  622.0 -4.428E-04  4.149E-02
  623.0 -2.577E-02  4.149E-02
  624.0 -2.577E-02  4.610E-02
  625.0 -2.577E-02  4.725E-02
  626.0 -4.428E-04  4.610E-02
  627.0 -2.807E-02  4.610E-02
  628.0 -2.577E-02  4.494E-02
  629.0 -2.577E-02  4.379E-02
  630.0 -2.807E-02  4.149E-02
  631.0 -3.268E-02  4.034E-02
  632.0 -3.268E-02  3.919E-02
  633.0 -3.268E-02  4.149E-02
  634.0 -3.268E-02  4.149E-02
  635.0 -2.807E-02  3.919E-02
  636.0 -1.426E-02  4.149E-02
  637.0 -3.268E-02  4.264E-02
  638.0 -4.428E-04  4.034E-02
  639.0  6.465E-03  4.149E-02
  640.0 -7.351E-03  4.264E-02
  641.0 -9.653E-03  4.034E-02
  642.0 -2.745E-03  3.919E-02
  643.0  2.489E-02  3.919E-02
  644.0 -2.745E-03  3.919E-02
  645.0 -2.745E-03  3.919E-02
  646.0 -4.428E-04  4.034E-02
  647.0 -1.196E-02  4.264E-02
  648.0 -2.745E-03  4.149E-02
  649.0  2.258E-02  4.149E-02
  650.0 -9.653E-03  4.149E-02
  651.0  6.465E-03  3.804E-02
  652.0 -4.428E-04  3.689E-02
  653.0 -4.428E-04  3.919E-02
  654.0 -4.428E-04  4.034E-02
  655.0  1.860E-03  3.919E-02
  656.0 -4.428E-04  3.689E-02
  657.0 -1.196E-02  3.458E-02
  658.0 -1.196E-02  3.573E-02
  659.0 -4.428E-04  3.458E-02
  660.0 -4.428E-04  3.228E-02
  661.0 -2.577E-02  2.998E-02
  662.0 -2.807E-02  2.998E-02
  663.0 -2.807E-02  2.998E-02
  664.0 -2.807E-02  2.883E-02
  665.0 -3.268E-02  2.537E-02
  666.0 -3.268E-02  2.537E-02
  667.0 -3.268E-02  2.422E-02
  668.0 -1.656E-02  2.883E-02
  669.0 -1.886E-02  2.883E-02
  670.0 -2.347E-02  2.652E-02
  671.0 -5.110E-02  2.768E-02
  672.0 -5.110E-02  2.768E-02
  673.0 -5.110E-02  2.652E-02
  674.0 -5.340E-02  2.652E-02
  675.0 -5.340E-02  2.652E-02
  676.0 -1.656E-02  2.768E-02
  677.0 -3.498E-02  2.652E-02
  678.0 -3.268E-02  2.652E-02
  679.0 -3.268E-02  2.883E-02
  680.0 -2.807E-02  2.768E-02
  681.0 -2.577E-02  2.883E-02
  682.0 -4.428E-04  2.768E-02
  683.0  1.860E-03  2.652E-02
  684.0  8.768E-03  2.652E-02
  685.0 -9.653E-03  2.768E-02
  686.0 -2.745E-03  2.537E-02
  687.0  2.489E-02  2.768E-02
  688.0  2.719E-02  2.537E-02
  689.0  1.107E-02  2.422E-02
  690.0  1.568E-02  2.422E-02
  691.0  4.791E-02  2.422E-02
  692.0  4.561E-02  2.422E-02
  693.0  1.798E-02  2.307E-02
  694.0  1.798E-02  2.422E-02
  695.0  1.107E-02  2.537E-02
  696.0 -2.745E-03  2.652E-02
  697.0  2.258E-02  2.652E-02
  698.0 -9.653E-03  2.537E-02
  699.0  2.489E-02  2.422E-02
  700.0 -9.653E-03  2.192E-02
  701.0 -7.351E-03  1.962E-02
  702.0 -7.351E-03  2.077E-02
  703.0  6.465E-03  2.192E-02
  704.0 -1.196E-02  2.307E-02
  705.0 -4.428E-04  2.192E-02
  706.0 -4.428E-04  2.307E-02
  707.0 -4.428E-04  2.192E-02
  708.0  8.768E-03  2.192E-02
  709.0 -1.196E-02  2.077E-02
  710.0  6.465E-03  2.192E-02
  711.0 -9.653E-03  2.077E-02
  712.0  6.465E-03  2.192E-02
  713.0 -4.428E-04  2.307E-02
  714.0  6.465E-03  2.422E-02
  715.0 -7.351E-03  2.192E-02
  716.0 -9.653E-03  2.422E-02
  717.0  8.768E-03  2.307E-02
  718.0 -4.428E-04  2.077E-02
  719.0  6.465E-03  2.192E-02
  720.0 -9.653E-03  2.307E-02
  721.0 -1.196E-02  2.422E-02
  722.0 -2.577E-02  2.422E-02
  723.0  6.465E-03  2.307E-02
  724.0  8.768E-03  2.192E-02
  725.0 -1.196E-02  2.307E-02
  726.0 -3.268E-02  2.652E-02
  727.0  6.465E-03  2.768E-02
  728.0  6.465E-03  2.537E-02
  729.0 -3.498E-02  2.307E-02
  730.0  6.465E-03  2.537E-02
  731.0 -4.428E-04  2.307E-02
  732.0 -7.351E-03  2.537E-02
  733.0 -2.745E-03  2.652E-02
  734.0 -9.653E-03  2.652E-02
  735.0  6.465E-03  2.998E-02
  736.0 -3.268E-02  2.998E-02
  737.0  6.465E-03  2.998E-02
  738.0  6.465E-03  2.998E-02
  739.0  6.465E-03  2.768E-02
  740.0 -4.428E-04  2.768E-02
  741.0 -2.577E-02  3.113E-02
  742.0 -2.577E-02  3.113E-02
  743.0 -2.577E-02  3.228E-02
  744.0 -4.428E-04  2.883E-02
  745.0  6.465E-03  2.883E-02
  746.0  6.465E-03  2.768E-02
  747.0 -9.653E-03  2.768E-02
  748.0 -9.653E-03  2.768E-02
  749.0 -9.653E-03  2.537E-02
  750.0 -9.653E-03  2.422E-02
  751.0 -1.196E-02  2.422E-02
  752.0 -1.196E-02  2.307E-02
  753.0 -2.745E-03  2.192E-02
  754.0 -1.196E-02  2.192E-02
  755.0 -9.653E-03  2.077E-02
  756.0 -9.653E-03  2.077E-02
  757.0 -2.745E-03  1.846E-02
  758.0  2.258E-02  1.846E-02
  759.0 -7.351E-03  1.501E-02
  760.0 -9.653E-03  1.501E-02
  761.0 -4.428E-04  1.731E-02
  762.0 -4.428E-04  1.731E-02
  763.0  1.860E-03  1.386E-02
  764.0 -4.428E-04  1.501E-02
  765.0  6.465E-03  1.501E-02
  766.0 -4.428E-04  1.501E-02
  767.0 -4.428E-04  1.041E-02
  768.0 -4.428E-04  1.041E-02
  769.0 -4.428E-04  9.255E-03
  770.0 -4.428E-04  5.801E-03
  771.0  6.465E-03  4.649E-03
  772.0  6.465E-03  4.649E-03
  773.0 -4.428E-04  6.952E-03
  774.0 -4.428E-04  6.952E-03
  775.0  1.860E-03  5.801E-03
  776.0  1.860E-03  5.801E-03
  777.0  6.465E-03  2.347E-03
  778.0  1.860E-03  4.649E-03
  779.0  1.860E-03  3.498E-03
  780.0  6.465E-03  1.196E-03
  781.0  6.465E-03  2.347E-03
  782.0  6.465E-03  4.428E-05
  783.0  6.465E-03 -1.107E-03
  784.0  1.860E-03  1.196E-03
  785.0  1.860E-03 -1.107E-03
  786.0  6.465E-03 -1.107E-03
  787.0  6.465E-03  1.196E-03
  788.0  6.465E-03  1.196E-03
  789.0  8.768E-03  4.428E-05
  790.0  6.465E-03 -2.258E-03
  791.0  6.465E-03 -2.258E-03
  792.0 -1.196E-02 -2.258E-03
  793.0 -1.196E-02 -4.561E-03
  794.0 -1.196E-02 -3.410E-03
  795.0 -9.653E-03 -3.410E-03
  796.0 -9.653E-03 -2.258E-03
  797.0 -9.653E-03  4.428E-05
  798.0 -9.653E-03 -1.107E-03
  799.0 -7.351E-03 -2.258E-03
  800.0 -2.745E-03 -2.258E-03
